File: Lab2/data/aSi_Abs.csv
Absorbance  thin film,
Wavelength (nm),Abs
750,0.386976
748,0.380868
746,0.367771
744,0.347556
742,0.32049
740,0.288148
738,0.253318
736,0.220451
734,0.1942949
732,0.179035
730,0.176387
728,0.185439
726,0.203824
724,0.228657
722,0.257239
720,0.287587
718,0.317743
716,0.346767
714,0.373193
712,0.396258
710,0.414719
708,0.427581
706,0.433387
704,0.431038
702,0.419879
700,0.400048
698,0.373283
696,0.343801
694,0.317688
692,0.30135
690,0.298871
688,0.310627
686,0.333833
684,0.364851
682,0.399906
680,0.436386
678,0.471562
676,0.504061
674,0.532213
672,0.554625
670,0.570165
668,0.577862
666,0.57776
664,0.571264
662,0.561778
660,0.554485
658,0.55464
656,0.565434
654,0.587369
652,0.618116
650,0.654554
648,0.693567
646,0.732657
644,0.769779
642,0.803059
640,0.831933
638,0.85577
636,0.875367
634,0.892225
632,0.909055
630,0.928714
628,0.953707
626,0.985034
624,1.02213
622,1.06351
620,1.1071
618,1.15175
616,1.19541
614,1.23779
612,1.27836
610,1.31786
608,1.35706
606,1.39706
604,1.43916
602,1.48382
600,1.5315
598,1.58156
596,1.63362
594,1.68659
592,1.74033
590,1.79386
588,1.84757
586,1.90124
584,1.95565
582,2.01038
580,2.06562
578,2.12126
576,2.17697
574,2.2325
572,2.28696
570,2.34023
568,2.39168
566,2.44183
564,2.48926
562,2.53434
560,2.57662
558,2.61623
556,2.65284
554,2.68625
552,2.71653
550,2.74404
548,2.76865
546,2.79023
544,2.81012
542,2.82733
540,2.84306
538,2.85683
536,2.86933
534,2.88059
532,2.89096
530,2.9006
528,2.90983
526,2.918
524,2.92579
522,2.93351
520,2.94094
518,2.94784
516,2.95463
514,2.96128
512,2.9679
510,2.97453
508,2.9809
506,2.98687
504,2.99311
502,2.99952
500,3.00546
498,3.01109
496,3.0174
494,3.02334
492,3.02896
490,3.03447
488,3.04015
486,3.0457
484,3.05113
482,3.0565
480,3.06237
478,3.06745
476,3.07275
474,3.07799
472,3.0832
470,3.08803
468,3.09354
466,3.09846
464,3.10377
462,3.10836
460,3.11346
458,3.11884
456,3.12341
454,3.1284
452,3.13281
450,3.13799