File: Lab2/data/aSi_R.csv
Reflectance thin film,
Wavelength (nm),%R
2400,45.0988
2393,46.3741
2386,47.5761
2379,48.6444
2372,49.7774
2365,50.7232
2358,51.7152
2351,52.5984
2344,53.4343
2337,54.2796
2330,55.0336
2323,55.6074
2316,56.2869
2309,56.8163
2302,57.3784
2295,57.8128
2288,58.0736
2281,58.2251
2274,58.4611
2267,58.7707
2260,59.0328
2253,59.3198
2246,59.5713
2239,59.8333
2232,59.894
2225,59.7948
2218,59.7278
2211,59.5937
2204,59.3328
2197,59.118
2190,58.7336
2183,58.3258
2176,57.9109
2169,57.2835
2162,56.714
2155,55.9947
2148,55.1494
2141,54.2785
2134,53.3088
2127,52.1855
2120,51.0455
2113,49.7475
2106,48.2915
2099,46.7921
2092,45.1116
2085,43.3314
2078,41.5006
2071,39.4665
2064,37.3558
2057,35.2139
2050,32.8919
2043,30.5587
2036,28.1723
2029,25.7881
2022,23.4043
2015,21.1309
2008,18.9027
2001,17.0169
1994,15.3848
1987,14.0144
1980,12.9733
1973,12.2565
1966,12.0036
1959,12.1632
1952,12.7773
1945,13.7904
1938,15.2027
1931,16.9178
1924,18.8673
1917,21.1061
1910,23.5231
1903,26.0261
1896,28.6908
1889,31.2648
1882,33.8668
1875,36.3009
1868,38.8809
1861,41.2065
1854,43.4212
1847,45.5801
1840,47.5668
1833,49.4699
1826,51.1739
1819,52.7302
1812,54.0819
1805,55.3411
1798,56.4699
1791,57.3995
1784,58.1768
1777,58.7807
1770,59.2479
1763,59.6091
1756,59.8463
1749,59.8644
1742,59.7788
1735,59.4411
1728,59.02
1721,58.3795
1714,57.5308
1707,56.534
1700,55.3376
1693,53.8702
1686,52.1546
1679,50.0679
1672,47.8121
1665,45.215
1658,42.3351
1651,39.2088
1644,35.8468
1637,32.2209
1630,28.4537
1623,24.7602
1616,21.2355
1609,18.0958
1602,15.5927
1595,13.8672
1588,13.1318
1581,13.4007
1574,14.7
1567,16.7739
1560,19.6252
1553,22.9704
1546,26.6152
1539,30.434
1532,34.2977
1525,37.9866
1518,41.5345
1511,44.7695
1504,47.7847
1497,50.3797
1490,52.6846
1483,54.7289
1476,56.3894
1469,57.6615
1462,58.6171
1455,59.305
1448,59.678
1441,59.6199
1434,59.2439
1427,58.4791
1420,57.2967
1413,55.6495
1406,53.4904
1399,50.8916
1392,47.4999
1385,43.6071
1378,38.9372
1371,34.0157
1364,28.6289
1357,23.363
1350,18.8556
1343,15.6971
1336,14.3966
1329,15.0485
1322,17.6064
1315,21.5776
1308,26.4144
1301,31.6667
1294,36.8273
1287,41.712
1280,46.0807
1273,49.986
1266,53.217
1259,55.7068
1252,57.6788
1245,58.9429
1238,59.6526
1231,59.6266
1224,58.8499
1217,57.2366
1210,54.7878
1203,51.1929
1196,46.3663
1189,40.3791
1182,33.5086
1175,26.3062
1168,19.9856
1161,16.1556
1154,15.8184
1147,18.9499
1140,24.5422
1133,31.244
1126,38.0091
1119,44.1406
1112,49.3662
1105,53.5193
1098,56.5913
1091,58.5847
1084,59.3029
1077,59.0373
1070,57.0921
1063,53.6809
1056,48.2484
1049,40.6013
1042,31.513
1035,22.7324
1028,17.548
1021,18.2237
1014,23.9181
1007,32.1101
1000,40.4624
993,47.6832
986,53.3146
979,57.1072
972,59.1508
965,59.2176
958,57.001
951,52.0146
944,43.7079
937,33.065
930,23.6741
923,20.4361
916,24.4302
909,32.551
902,41.3988
895,48.6225
888,53.2817
881,55.265
874,56.9632
867,52.5069
860,45.5582
853,37.2384
846,31.1225
839,30.2089
832,34.8096
825,42.1445
818,49.3676
811,53.5133
804,53.5106
797,48.9974
790,32.2604
783,20.4509
776,28.1067
769,43.2446
762,54.621
755,59.4704
748,56.51
741,42.2988
734,23.2338
727,27.8251
720,44.7481
713,55.6527
706,56.1846
699,42.4744
692,23.6786
685,32.0512
678,47.0841
671,51.032
664,39.8037
657,27.0706
650,35.1914
643,43.6819
636,40.4273
629,32.9007
622,35.6809
615,39.7536
608,37.9359
601,36.4402
594,38.1116
587,38.5959
580,38.1812
573,38.6404
566,39.0125
559,39.1694
552,39.4732
545,39.7562
538,40.029
531,40.3167
524,40.6109
517,40.8999
510,41.2111
503,41.5196
496,41.8453
489,42.1778
482,42.5103
475,42.8543
468,43.2208
461,43.5936
454,43.9733
447,44.3714
440,44.7782
433,45.207
426,45.6596
419,46.1239
412,46.633
405,47.1231
400,47.4929