File: Lab2/data/aSi_T.csv
Transmission thin film,
Wavelength (nm),%T
2500,76.6894
2492,75.3791
2484,74.1371
2476,72.8663
2468,71.3258
2460,69.8973
2452,68.4748
2444,67.0387
2436,65.5888
2428,64.0517
2420,62.5555
2412,61.225
2404,59.9275
2396,58.5018
2388,57.3156
2380,56.0766
2372,54.9832
2364,53.7851
2356,52.7298
2348,51.6578
2340,50.694
2332,49.6848
2324,48.694
2316,47.8251
2308,46.9287
2300,46.0773
2292,45.4256
2284,44.7058
2276,44.2944
2268,43.7767
2260,43.2768
2252,42.8259
2244,42.5522
2236,42.2544
2228,42.0544
2220,41.9793
2212,41.9844
2204,42.0091
2196,42.1605
2188,42.38
2180,42.7734
2172,43.1196
2164,43.5999
2156,44.2672
2148,44.9037
2140,45.7823
2132,46.6965
2124,47.7357
2116,49.0221
2108,50.2351
2100,51.7604
2092,53.2647
2084,55.0143
2076,56.8468
2068,58.8937
2060,61.0797
2052,63.3169
2044,65.6456
2036,67.9058
2028,70.4893
2020,73.0431
2012,75.3882
2004,77.7749
1996,80.026
1988,81.885
1980,83.3885
1972,84.5706
1964,85.2378
1956,85.49263
1948,85.3023
1940,84.8471
1932,83.6615
1924,82.3879
1916,80.6501
1908,78.6502
1900,76.4425
1892,74.1003
1884,71.5796
1876,69.1024
1868,66.6777
1860,64.1626
1852,61.7174
1844,59.4641
1836,57.2537
1828,55.1465
1820,53.2603
1812,51.4461
1804,49.8724
1796,48.3457
1788,47.1193
1780,45.9296
1772,44.987
1764,44.2613
1756,43.6644
1748,43.3024
1740,43.0461
1732,43.0315
1724,43.2355
1716,43.7617
1708,44.4607
1700,45.3281
1692,46.5662
1684,48.0904
1676,49.9595
1668,52.2179
1660,54.7924
1652,57.6974
1644,61.0371
1636,64.6016
1628,68.292
1620,72.1105
1612,75.6731
1604,78.9209
1596,81.3806
1588,83.161
1580,83.7479
1572,83.4686
1564,82.1317
1556,79.9908
1548,77.1985
1540,73.9658
1532,70.431
1524,66.909
1516,63.3229
1508,60.0358
1500,56.9286
1492,53.9293
1484,51.3396
1476,49.1668
1468,47.2838
1460,45.7825
1452,44.6207
1444,43.9319
1436,43.5989
1428,43.6575
1420,44.2665
1412,45.3524
1404,47.158
1396,49.6182
1388,52.909
1380,56.8197
1372,61.4539
1364,66.7716
1356,72.0425
1348,76.7092
1340,80.1357
1332,81.9726
1324,81.7062
1316,79.6442
1308,76.1219
1300,71.6278
1292,66.956
1284,62.2929
1276,57.7802
1268,53.8254
1260,50.5917
1252,47.8477
1244,45.8154
1236,44.5855
1228,44.0336
1220,44.4115
1212,45.8511
1204,48.3968
1196,52.1432
1188,57.1451
1180,63.7323
1172,70.7587
1164,76.7278
1156,79.9986
1148,79.8636
1140,76.4357
1132,71.3064
1124,65.1495
1116,59.3107
1108,54.1632
1100,49.9193
1092,46.7518
1084,44.7933
1076,44.2791
1068,45.3547
1060,48.4025
1052,53.7014
1044,61.4271
1036,70.3665
1028,77.1772
1020,78.9927
1012,75.1
1004,68.0977
996,60.5664
988,53.8373
980,48.6585
972,45.2708
964,44.0665
956,45.4933
948,50.1253
940,58.7656
932,69.6939
924,76.8872
916,75.3972
908,67.7764
900,58.7288
892,51.1942
884,46.1811
876,44.2591
868,46.1722
860,53.3392
852,64.3193
844,72.4592
836,71.3298
828,63.693
820,54.3549
812,43.1469
804,42.472
796,48.7581
788,63.5789
780,72.2391
772,63.1818
764,50.7213
756,42.7457
748,41.7002
740,51.5006
732,66.0953
724,59.0184
716,45.0789
708,37.4605
700,39.8312
692,49.8792
684,43.1399
676,31.3819
668,26.4683
660,27.8749
652,24.0809
644,17.0055
636,13.3321
628,11.125
620,7.81833
612,5.27243
604,3.64084
596,2.32681
588,1.42227
580,0.860738
572,0.516625
564,0.324332
556,0.222181
548,0.170263
540,0.143142
532,0.128177
524,0.118233
516,0.111006
508,0.103861
500,0.0985546
492,0.09333539
484,0.0886061
476,0.0841849
468,0.0802328
460,0.0768369
452,0.07357277
444,0.0704748
436,0.0676415
428,0.0644775
420,0.0620913
412,0.0596339
404,0.0575152
396,0.0553639
388,0.052799
380,0.0512475
372,0.0495722
364,0.0476081
356,0.0455308
350,0.0442123