File: Lab1/T_R_A Data/Wafer_1-abs.csv
Wafer#1 11.3mils thick EE535,
Wavelength (nm),Abs
1650,1.00481
1649,1.01122
1648,1.01879
1647,1.02626
1646,1.03415
1645,1.04019
1644,1.04835
1643,1.05538
1642,1.06317
1641,1.07208
1640,1.07989
1639,1.088
1638,1.09606
1637,1.10432
1636,1.11253
1635,1.12159
1634,1.13031
1633,1.1396
1632,1.14969
1631,1.15826
1630,1.16824
1629,1.17727
1628,1.18715
1627,1.19787
1626,1.20635
1625,1.21591
1624,1.22637
1623,1.23725
1622,1.24814
1621,1.25892
1620,1.2699
1619,1.28265
1618,1.2922
1617,1.30518
1616,1.31761
1615,1.33161
1614,1.34423
1613,1.35674
1612,1.37025
1611,1.38264
1610,1.39642
1609,1.41152
1608,1.42636
1607,1.44258
1606,1.45884
1605,1.47701
1604,1.49194
1603,1.5086
1602,1.52583
1601,1.54492
1600,1.56265
1599,1.58287
1598,1.60053
1597,1.62132
1596,1.639
1595,1.66309
1594,1.68564
1593,1.70482
1592,1.73252
1591,1.75576
1590,1.78615
1589,1.81038
1588,1.8342
1587,1.86403
1586,1.89552
1585,1.92197
1584,1.96232
1583,1.99336
1582,2.02849
1581,2.06974
1580,2.1014
1579,2.14112
1578,2.18997
1577,2.24278
1576,2.29076
1575,2.33622
1574,2.40618
1573,2.45382
1572,2.50271
1571,2.57387
1570,2.68995
1569,2.74019
1568,2.78945
1567,2.91516
1566,3.0257
1565,3.12622
1564,3.27614
1563,3.43198
1562,3.42123
1561,3.62271
1560,3.73473
1559,4.49826
1558,3.88358
1557,4.21633
1556,3.98358
1555,4.11718
1554,4.2448
1553,3.81584
1552,10
1551,4.26731
1550,3.76847