File: Lab1/T_R_A Data/Wafer3 Transmission Filmetrics.csv
"Wavelength (nm)", "Transmittance (%)"
379.79, 3.255
382.79, 0.264
385.79, -0.146
388.79, -1.24
391.79, 0.176
394.79, 0.452
397.78, -0.35
400.78, 0.62
403.77, 0.451
406.77, 0.614
409.76, -0.108
412.75, -0.25
415.74, 0.348
418.73, -0.193
421.71, 0.204
424.7, -0.05
427.69, -0.24
430.67, 0.061
433.65, 0.171
436.63, 0.071
439.61, 0.217
442.59, 0.141
445.57, 0.106
448.54, 0.045
451.52, 0.061
454.49, 0.092
457.47, 0.042
460.44, -0.128
463.41, 0.059
466.38, 0.023
469.35, 0.118
472.31, 0.085
475.28, -0.039
478.24, 0.031
481.21, 0.039
484.17, 0.068
487.13, 0.01
490.09, 0.028
493.05, -0.085
496, 0.188
498.96, -0.001
501.91, 0.171
504.87, 0.088
507.82, -0.064
510.77, -0.051
513.72, 0.144
516.67, -0.144
519.62, 0.201
522.57, 0.073
525.51, 0.019
528.45, -0.104
531.4, 0.028
534.34, -0.007
537.28, -0.009
540.22, -0.084
543.16, 0.109
546.09, -0.164
549.03, -0.048
551.96, -0.036
554.9, 0.004
557.83, 0.121
560.76, 0.111
563.69, 0.124
566.62, -0.052
569.55, -0.199
572.47, 0.035
575.4, 0.067
578.32, -0.082
581.24, 0.056
584.17, 0.094
587.09, 0.068
590, 0.022
592.92, 0.108
595.84, 0.027
598.75, 0.073
601.67, 0.214
604.58, 0.083
607.49, 0.143
610.4, 0.106
613.31, -0.034
616.22, 0.159
619.13, 0.099
622.03, 0.146
624.94, 0.058
627.84, 0.126
630.74, 0.013
633.65, 0.081
636.55, 0.053
639.44, 0.015
642.34, -0.012
645.24, 0.098
648.13, 0.322
651.03, 0.467
653.92, 0.471
656.81, 0.527
659.7, 0.613
662.59, 0.688
665.48, 0.707
668.37, 0.727
671.25, 0.722
674.13, 0.72
677.02, 0.779
679.9, 0.737
682.78, 0.724
685.66, 0.578
688.54, 0.593
691.42, 0.604
694.29, 0.555
697.17, 0.572
700.04, 0.666
702.91, 0.613
705.78, 0.591
708.65, 0.619
711.52, 0.62
714.39, 0.619
717.26, 0.632
720.12, 0.765
722.99, 1.001
725.85, 1.022
728.71, 1.065
731.57, 1.251
734.43, 1.463
737.29, 2.422
740.14, 6.432
743, 15.385
745.85, 27.644
748.71, 39.299
751.56, 48.278
754.41, 54.531
757.26, 58.565
760.11, 61.093
762.96, 62.889
765.8, 63.884
768.65, 64.834
771.49, 65.648
774.33, 66.088
777.17, 66.563
780.01, 67.107
782.85, 67.376
785.69, 67.553
788.53, 67.863
791.36, 68.213
794.2, 68.356
797.03, 68.563
799.86, 68.672
802.69, 68.852
805.52, 68.979
808.35, 69.143
811.18, 69.424
814, 69.571
816.83, 69.696
819.65, 69.73
822.47, 69.781
825.29, 69.996
828.11, 70.204
830.93, 70.266
833.75, 70.36
836.57, 70.495
839.38, 70.651
842.19, 70.705
845.01, 70.736
847.82, 70.802
850.63, 70.744
853.44, 70.778
856.25, 70.781
859.05, 70.602
861.86, 70.721
864.66, 71.116
867.47, 71.325
870.27, 71.245
873.07, 71.387
875.87, 71.564
878.67, 71.499
881.46, 71.378
884.26, 71.366
887.05, 71.366
889.85, 71.24
892.64, 71.263
895.43, 71.47
898.22, 71.543
901.01, 71.588
903.8, 71.645
906.58, 71.727
909.37, 71.8
912.15, 71.723
914.93, 71.797
917.72, 71.807
920.5, 71.798
923.28, 71.602
926.05, 71.826
928.83, 71.963
931.61, 71.998
934.38, 72.016
937.15, 72.091
939.92, 72.274
942.7, 72.122
945.47, 72.161
948.23, 72.409
951, 72.617
953.77, 72.576
956.53, 72.328
959.3, 72.23
962.06, 72.332
964.82, 72.544
967.58, 72.679
970.34, 72.707
973.1, 72.766
975.85, 72.747
978.61, 72.948
981.36, 72.985
984.11, 72.934
986.87, 72.755
989.62, 72.553
992.37, 72.666
995.11, 72.693
997.86, 72.729
1000.61, 72.675
1003.35, 72.632
1006.09, 72.6
1008.84, 72.485
1011.58, 72.535
1014.32, 72.544
1017.06, 72.771
1019.79, 72.658
1022.53, 72.809
1025.26, 72.778
1028, 73.053
1030.73, 72.952
1033.46, 72.961
1036.19, 72.951
1038.92, 72.897
1041.65, 72.955
1044.37, 73.125
1047.1, 73.197
1049.82, 73.095
1050.51, 73.052