File: Lab1/T_R_A Data/Wafer_2-abs.csv
Wafer#2 7.8mils thick EE535,
Wavelength (nm),Abs
1050,0.441275
1049,0.446716
1048,0.4518
1047,0.457395
1046,0.462993
1045,0.468558
1044,0.474647
1043,0.480915
1042,0.487059
1041,0.493456
1040,0.499852
1039,0.506436
1038,0.513297
1037,0.52069
1036,0.5278
1035,0.534848
1034,0.542117
1033,0.549343
1032,0.556865
1031,0.564885
1030,0.572596
1029,0.580443
1028,0.588516
1027,0.596997
1026,0.605047
1025,0.613536
1024,0.622116
1023,0.631004
1022,0.639677
1021,0.648831
1020,0.657858
1019,0.666944
1018,0.67624
1017,0.686248
1016,0.695409
1015,0.705024
1014,0.714644
1013,0.724515
1012,0.734915
1011,0.745052
1010,0.755782
1009,0.765811
1008,0.776209
1007,0.787539
1006,0.79817
1005,0.809268
1004,0.820676
1003,0.832352
1002,0.843546
1001,0.854676
1000,0.866157
999,0.878407
998,0.890612
997,0.902296
996,0.914593
995,0.926671
994,0.93877
993,0.95115
992,0.963927
991,0.977409
990,0.990811
989,1.00393
988,1.01652
987,1.03033
986,1.04418
985,1.05843
984,1.07119
983,1.08635
982,1.09974
981,1.11406
980,1.12918
979,1.14611
978,1.16108
977,1.17504
976,1.19043
975,1.2046
974,1.22133
973,1.23827
972,1.25412
971,1.26937
970,1.28633
969,1.30187
968,1.31943
967,1.33483
966,1.35327
965,1.36888
964,1.38664
963,1.4046
962,1.42168
961,1.44204
960,1.46354
959,1.47988
958,1.49824
957,1.51606
956,1.53492
955,1.55675
954,1.57355
953,1.59418
952,1.61549
951,1.63502
950,1.65565
949,1.67607
948,1.69402
947,1.71718
946,1.7389
945,1.75528
944,1.78081
943,1.80122
942,1.82591
941,1.84382
940,1.86895
939,1.8943
938,1.9193
937,1.93705
936,1.95991
935,1.97886
934,2.00818
933,2.02899
932,2.05412
931,2.07764
930,2.10618
929,2.12485
928,2.15378
927,2.17453
926,2.19957
925,2.22362
924,2.25989
923,2.28223
922,2.30816
921,2.32771
920,2.36209
919,2.37599
918,2.41949
917,2.45017
916,2.46703
915,2.49255
914,2.54657
913,2.5648
912,2.56835
911,2.60656
910,2.60288
909,2.63881
908,2.67671
907,2.71278
906,2.75776
905,2.77713
904,2.77767
903,2.80529
902,2.84117
901,2.91677
900,2.96856
899,2.94196
898,3.01974
897,3.04972
896,3.02659
895,3.06805
894,3.09157
893,3.15872
892,3.07108
891,3.21356
890,3.22857
889,3.18882
888,3.34168
887,3.2876
886,3.3908
885,3.34681
884,3.43528
883,3.44167
882,3.58755
881,3.38646
880,3.61357
879,3.91932
878,3.75073
877,3.96618
876,3.58508
875,3.71873
874,3.66094
873,3.77433
872,3.86195
871,3.78505
870,3.99985
869,3.56669
868,3.51734
867,10
866,4.07986
865,3.74235
864,4.39641
863,3.55781
862,3.92036
861,3.9596
860,4.92526
859,3.88445
858,3.74824
857,4.45143
856,3.86324
855,4.01222
854,10
853,3.63856
852,4.18971
851,4.05444
850,3.96578